t (s)	R (ohm)
0.000	45985608.000
0.500	45882076.000
1.000	45888996.000
1.500	45912208.000
2.000	46042036.000
2.500	45886644.000
3.000	45921944.000
3.500	46073772.000
4.000	45952156.000
4.500	45995876.000
5.000	45994936.000
5.500	45754048.000
6.000	45995380.000
6.500	45857956.000
7.000	45777520.000
7.500	45887592.000
8.000	45664804.000
8.500	45724144.000
9.000	45692904.000
9.500	45692864.000
10.000	45655164.000
10.500	45685900.000
11.000	45698804.000
11.500	45738812.000
12.000	45569956.000
12.500	45428300.000
13.000	45482444.000
13.500	45566392.000
14.000	45491552.000
14.500	45467788.000
15.000	45492920.000
15.500	45460592.000
16.000	45485068.000
16.500	45322660.000
17.000	45455964.000
17.500	43979096.000
18.000	45372884.000
18.500	45485068.000
19.000	45446888.000
19.500	45292432.000
20.000	45338884.000
20.500	45437848.000
21.000	45470140.000
21.500	45336116.000
22.000	45230644.000
22.500	45373360.000
23.000	45449216.000
23.500	45413240.000
24.000	45354360.000
24.500	45334908.000
25.000	45406000.000
25.500	45332148.000
26.000	45177072.000
26.500	45197760.000
27.000	45267080.000
27.500	45235044.000
28.000	45259436.000
28.500	45307260.000
29.000	45206288.000
29.500	45237784.000
30.000	45339360.000
30.500	40908936.000
31.000	29736624.000
31.500	25240434.000
32.000	22839280.000
32.500	21716300.000
33.000	21294088.000
33.500	21501240.000
34.000	20997670.000
34.500	21107622.000
35.000	21210048.000
35.500	21257782.000
36.000	21332894.000
36.500	21352212.000
37.000	21384144.000
37.500	21452358.000
38.000	21522484.000
38.500	21555588.000
39.000	21580624.000
39.500	21610702.000
40.000	21624246.000
40.500	21637840.000
41.000	21663728.000
41.500	21678212.000
42.000	21712188.000
42.500	21701180.000
43.000	21738258.000
43.500	21764414.000
44.000	21756968.000
44.500	21726302.000
45.000	21793856.000
45.500	21756122.000
46.000	21819924.000
46.500	21849770.000
47.000	21857448.000
47.500	21855916.000
48.000	21867794.000
48.500	21862284.000
49.000	21862710.000
49.500	21854582.000
50.000	21850174.000
50.500	21871082.000
51.000	21884520.000
51.500	21886508.000
52.000	21895322.000
52.500	21917190.000
53.000	21917190.000
53.500	21950182.000
54.000	21919846.000
54.500	21953720.000
55.000	21913220.000
55.500	21933130.000
56.000	21924490.000
56.500	21943092.000
57.000	21957272.000
57.500	21997512.000
58.000	21989936.000
58.500	22029410.000
59.000	22012672.000
59.500	22026278.000
60.000	22014898.000
60.500	22000402.000
61.000	21992612.000
61.500	22055124.000
62.000	22020472.000
62.500	21983936.000
63.000	21971928.000
63.500	21968824.000
64.000	21926464.000
64.500	22000630.000
65.000	21991054.000
65.500	21932684.000
66.000	21975708.000
66.500	21997962.000
67.000	22040356.000
67.500	22005530.000
68.000	22010668.000
68.500	22075286.000
69.000	22080444.000
69.500	22052886.000
70.000	22029854.000
70.500	22105602.000
71.000	22056696.000
71.500	22034992.000
72.000	22061846.000
72.500	22048412.000
73.000	22069694.000
73.500	22054904.000
74.000	22090776.000
74.500	22069688.000
75.000	22043034.000
75.500	22053334.000
76.000	22057140.000
76.500	22101792.000
77.000	22051990.000
77.500	22068790.000
78.000	22102014.000
78.500	22075068.000
79.000	22031416.000
79.500	22084048.000
80.000	22060272.000
80.500	22054900.000
81.000	22083812.000
81.500	22048860.000
82.000	22094812.000
82.500	22085824.000
83.000	22084476.000
83.500	22067442.000
84.000	22078428.000
84.500	22097512.000
85.000	22106048.000
85.500	22082914.000
86.000	22085836.000
86.500	22114362.000
87.000	22085158.000
87.500	22072602.000
88.000	22088070.000
88.500	22075514.000
89.000	22034542.000
89.500	22058696.000
90.000	22056916.000
90.500	22058254.000
91.000	22093244.000
91.500	22060946.000
92.000	22060940.000
92.500	22024490.000
93.000	22051540.000
93.500	22077308.000
94.000	22071922.000
94.500	22092800.000
95.000	22129704.000
95.500	22124294.000
96.000	22108754.000
96.500	22113260.000
97.000	22069914.000
97.500	22050868.000
98.000	22071702.000
98.500	22058028.000
99.000	22067212.000
99.500	22055786.000
100.000	22043708.000
100.500	22085154.000
101.000	22079098.000
101.500	22071470.000
102.000	22065866.000
102.500	22070348.000
103.000	22129688.000
103.500	22104256.000
104.000	22069456.000
104.500	22077072.000
105.000	22093468.000
105.500	22082460.000
106.000	22050638.000
106.500	22083138.000
107.000	22098186.000
107.500	22122034.000
108.000	22147068.000
108.500	22126326.000
109.000	22140972.000
109.500	22146170.000
110.000	22136264.000
110.500	22133542.000
111.000	22135110.000
111.500	22142326.000
112.000	22121810.000
112.500	22113034.000
113.000	22154972.000
113.500	22113478.000
114.000	22099096.000
114.500	22113488.000
115.000	22137810.000
115.500	22060952.000
116.000	22093928.000
116.500	22047286.000
117.000	22041256.000
117.500	22068792.000
118.000	22063856.000
118.500	22103600.000
119.000	22101118.000
119.500	22091232.000
120.000	22071698.000
120.500	22082482.000
121.000	22102248.000
121.500	22108318.000
122.000	22077988.000
122.500	22075750.000
123.000	22073728.000
123.500	22108768.000
124.000	22076408.000
124.500	22106288.000
125.000	22126556.000
125.500	22082472.000
126.000	22115972.000
126.500	22097070.000
127.000	22140970.000
127.500	22137136.000
128.000	22109662.000
128.500	22125870.000
129.000	22090110.000
129.500	22127908.000
130.000	22155212.000
130.500	22152054.000
131.000	22150230.000
131.500	22149568.000
132.000	22145494.000
132.500	22158596.000
133.000	22082472.000
133.500	22091902.000
134.000	22100892.000
134.500	22150928.000
135.000	22163344.000
135.500	22133090.000
136.000	22142360.000
136.500	22176912.000
137.000	22203890.000
137.500	22182812.000
138.000	22198224.000
138.500	22208456.000
139.000	22186660.000
139.500	22152066.000
140.000	22177400.000
140.500	22151396.000
141.000	22158148.000
141.500	22168116.000
142.000	22200734.000
142.500	22208432.000
143.000	22179856.000
143.500	22177832.000
144.000	22194150.000
144.500	22146178.000
145.000	22178506.000
145.500	22162446.000
146.000	22186896.000
146.500	22179420.000
147.000	22195276.000
147.500	22174446.000
148.000	22182814.000
148.500	22150934.000
149.000	22164470.000
149.500	22116414.000
150.000	22159508.000
150.500	22098204.000
151.000	22138056.000
151.500	22152046.000
152.000	22179868.000
152.500	22212746.000
153.000	22166070.000
153.500	22165608.000
154.000	22159964.000
154.500	22163348.000
155.000	22177832.000
155.500	22173748.000
156.000	22180766.000
156.500	22184404.000
157.000	22204356.000
157.500	22147314.000
158.000	22159720.000
158.500	22190528.000
159.000	22190060.000
159.500	22223676.000
160.000	22159516.000
160.500	22159062.000
161.000	22187568.000
161.500	22236184.000
162.000	22225260.000
162.500	22248226.000
163.000	22242766.000
163.500	22267164.000
164.000	22244798.000
164.500	22264858.000
165.000	22232728.000
165.500	22242506.000
166.000	22271674.000
166.500	22277638.000
167.000	22268992.000
167.500	22237508.000
168.000	22223644.000
168.500	22232976.000
169.000	22199120.000
169.500	22181668.000
170.000	22214322.000
170.500	22168544.000
171.000	22188672.000
171.500	22174866.000
172.000	22168316.000
172.500	22137588.000
173.000	22158126.000
173.500	22150678.000
174.000	22195038.000
174.500	22144592.000
175.000	22203656.000
175.500	22223666.000
176.000	22210678.000
176.500	22207502.000
177.000	22188686.000
177.500	22198198.000
178.000	22210904.000
178.500	22190262.000
179.000	22193204.000
179.500	22169874.000
180.000	22188448.000
180.500	22200018.000
181.000	22170118.000
181.500	22183708.000
182.000	22190494.000
182.500	22179158.000
183.000	22156768.000
183.500	22173968.000
184.000	22163566.000
184.500	22150678.000
185.000	22199808.000
185.500	22171930.000
186.000	22199094.000
186.500	22166504.000
187.000	22144124.000
187.500	22140070.000
188.000	22159926.000
188.500	22194330.000
189.000	22208412.000
189.500	22198892.000
190.000	22195030.000
190.500	22187778.000
191.000	22176444.000
191.500	22099306.000
192.000	22173048.000
192.500	22192292.000
193.000	22259156.000
193.500	22222268.000
194.000	22334222.000
194.500	22197970.000
195.000	22205684.000
195.500	22178258.000
196.000	22136460.000
196.500	22149314.000
197.000	22183014.000
197.500	22174646.000
198.000	22202510.000
198.500	22205256.000
199.000	22232052.000
199.500	22241836.000
200.000	22226594.000
200.500	22227720.000
201.000	22227948.000
201.500	22242966.000
202.000	22230450.000
202.500	22226118.000
203.000	22247274.000
203.500	22170568.000
204.000	22242992.000
204.500	22226598.000
205.000	22183686.000
205.500	22240482.000
206.000	22211602.000
206.500	22189594.000
207.000	22261216.000
207.500	22221140.000
208.000	22220014.000
208.500	22198424.000
209.000	22225690.000
209.500	22239810.000
210.000	22245944.000
210.500	22283146.000
211.000	22244140.000
211.500	22249834.000
212.000	22269904.000
212.500	22249826.000
213.000	22245946.000
213.500	22220892.000
214.000	22205032.000
214.500	22239108.000
215.000	22201398.000
215.500	22157920.000
216.000	22172606.000
216.500	22202964.000
217.000	22231816.000
217.500	22161966.000
218.000	22209570.000
218.500	22194128.000
219.000	22248694.000
219.500	22245460.000
220.000	22275372.000
220.500	22268060.000
221.000	22248672.000
221.500	22253008.000
222.000	22238878.000
222.500	22245444.000
223.000	22254372.000
223.500	22312672.000
224.000	22267362.000
224.500	22270328.000
225.000	22228422.000
225.500	22318370.000
226.000	22346394.000
226.500	22369852.000
227.000	22314708.000
227.500	22294784.000
228.000	22261184.000
228.500	22315842.000
229.000	22328716.000
229.500	22313126.000
230.000	22306274.000
230.500	22284076.000
231.000	22302112.000
231.500	22288392.000
232.000	22272610.000
232.500	22307604.000
233.000	22321376.000
233.500	22327546.000
234.000	22334438.000
234.500	22295682.000
235.000	22290400.000
235.500	22311736.000
236.000	22317934.000
236.500	22320428.000
237.000	22333272.000
237.500	22325244.000
238.000	22345228.000
238.500	22355792.000
239.000	22279666.000
239.500	22277174.000
240.000	22305980.000
240.500	22276030.000
241.000	22274022.000
241.500	22290456.000
242.000	22260540.000
242.500	22245492.000
243.000	22288202.000
243.500	22257798.000
244.000	22268522.000
244.500	22262822.000
245.000	22314708.000
245.500	22306914.000
246.000	22311730.000
246.500	22320920.000
247.000	22305786.000
247.500	22312682.000
248.000	22287266.000
248.500	22308566.000
249.000	22280432.000
249.500	22265812.000
250.000	22284524.000
250.500	22272866.000
251.000	22282468.000
251.500	22268742.000
252.000	22266010.000
252.500	22287492.000
253.000	22252988.000
253.500	22303244.000
254.000	22325048.000
254.500	22333758.000
255.000	22281044.000
255.500	22276472.000
256.000	22272384.000
256.500	22323408.000
257.000	22360410.000
257.500	22339720.000
258.000	22289070.000
258.500	22343184.000
259.000	22359958.000
259.500	22348246.000
260.000	22362522.000
260.500	22343874.000
261.000	22403790.000
261.500	22359948.000
262.000	22307148.000
262.500	22385296.000
263.000	22352362.000
263.500	22368494.000
264.000	22360404.000
264.500	22316322.000
265.000	22322952.000
265.500	22351222.000
266.000	22321590.000
266.500	22290910.000
267.000	22352322.000
267.500	22383660.000
268.000	22327056.000
268.500	22300722.000
269.000	22323404.000
269.500	22301168.000
270.000	22302110.000
270.500	22284046.000
271.000	22331014.000
271.500	22275798.000
272.000	22335572.000
272.500	22348252.000
273.000	22335342.000
273.500	22340432.000
274.000	22327586.000
274.500	22343418.000
275.000	22318622.000
275.500	22331918.000
276.000	22333800.000
276.500	22318396.000
277.000	22353724.000
277.500	22334934.000
278.000	22311546.000
278.500	22315654.000
279.000	22307634.000
279.500	22334670.000
280.000	22330302.000
280.500	22272832.000
281.000	22273056.000
281.500	22297040.000
282.000	22289724.000
282.500	22267814.000
283.000	22260288.000
283.500	22299598.000
284.000	22289754.000
284.500	22322954.000
285.000	22349606.000
285.500	22367096.000
286.000	22327778.000
286.500	22291366.000
287.000	22316348.000
287.500	22351190.000
288.000	22365882.000
288.500	22387866.000
289.000	22362478.000
289.500	22369582.000
290.000	22349788.000
290.500	22345460.000
291.000	22376958.000
291.500	22382526.000
292.000	22384122.000
292.500	22386466.000
293.000	22419454.000
293.500	22423414.000
294.000	22435186.000
294.500	22391276.000
295.000	22392862.000
295.500	22402788.000
296.000	22375564.000
296.500	22390100.000
297.000	22347264.000
297.500	22369360.000
298.000	22351904.000
298.500	22349342.000
299.000	22349158.000
299.500	22318170.000
