t (s)	R (ohm)
0.000	24669002.000
0.500	25289916.000
1.000	25471118.000
1.500	25592368.000
2.000	25737710.000
2.500	25874568.000
3.000	25947464.000
3.500	26068018.000
4.000	26179860.000
4.500	26300166.000
5.000	26412096.000
5.500	26475986.000
6.000	26489166.000
6.500	26633568.000
7.000	26725578.000
7.500	26730820.000
8.000	26801038.000
8.500	26884606.000
9.000	26898152.000
9.500	27050992.000
10.000	27116692.000
10.500	27181058.000
11.000	27234166.000
11.500	27336402.000
12.000	27350156.000
12.500	27401838.000
13.000	27440998.000
13.500	27499374.000
14.000	27512450.000
14.500	27547812.000
15.000	27582966.000
15.500	27664028.000
16.000	27719138.000
16.500	27760038.000
17.000	27789598.000
17.500	27843250.000
18.000	27811352.000
18.500	27859800.000
19.000	27912338.000
19.500	27918548.000
20.000	27907290.000
20.500	27974154.000
21.000	27981234.000
21.500	27995372.000
22.000	28012390.000
22.500	28072644.000
23.000	28094870.000
23.500	28122306.000
24.000	28171820.000
24.500	28144008.000
25.000	28157486.000
25.500	28202256.000
26.000	28218348.000
26.500	28232734.000
27.000	28303202.000
27.500	28314800.000
28.000	28284102.000
28.500	28266492.000
29.000	28243152.000
29.500	28308162.000
