t (s)	R (ohm)
0.000	24884086.000
0.500	25459650.000
1.000	25642128.000
1.500	25855828.000
2.000	26007410.000
2.500	26057794.000
3.000	26319986.000
3.500	26368318.000
4.000	26412218.000
4.500	26618818.000
5.000	26752140.000
5.500	26818960.000
6.000	26818956.000
6.500	26927234.000
7.000	27031192.000
7.500	27052562.000
8.000	27191400.000
8.500	27345950.000
9.000	27313332.000
9.500	27385992.000
10.000	27490516.000
10.500	27386076.000
11.000	27497638.000
11.500	27508550.000
12.000	27577648.000
12.500	27663700.000
13.000	27671736.000
13.500	27759732.000
14.000	27829548.000
14.500	27828696.000
15.000	27897484.000
15.500	27933530.000
16.000	27929860.000
16.500	27925330.000
17.000	27930416.000
17.500	27985232.000
18.000	27989188.000
18.500	27986944.000
19.000	28079536.000
19.500	28083244.000
20.000	28148406.000
20.500	28202924.000
21.000	28224210.000
21.500	28306838.000
22.000	28308548.000
22.500	28291188.000
23.000	28280802.000
23.500	28258848.000
24.000	28363714.000
24.500	28325352.000
25.000	28420832.000
25.500	28359020.000
26.000	28446534.000
26.500	28450632.000
27.000	28512492.000
27.500	28438346.000
28.000	28467314.000
28.500	28436892.000
29.000	28446536.000
29.500	28536632.000
30.000	28581444.000
30.500	28595886.000
31.000	28542860.000
31.500	28568768.000
32.000	28651992.000
32.500	28661766.000
33.000	28687896.000
33.500	28667564.000
34.000	28684298.000
34.500	28752256.000
35.000	28672318.000
35.500	28717266.000
36.000	28684796.000
36.500	28696122.000
37.000	28657802.000
37.500	28706888.000
38.000	28748944.000
38.500	28703314.000
39.000	28728354.000
39.500	28762274.000
40.000	28772790.000
40.500	28881656.000
41.000	28853020.000
41.500	28803130.000
42.000	28745056.000
42.500	28756450.000
43.000	28774952.000
43.500	28777380.000
44.000	28721154.000
44.500	28763828.000
45.000	28725328.000
45.500	28842432.000
46.000	28823868.000
46.500	28845780.000
47.000	28834304.000
47.500	28804882.000
48.000	28838818.000
48.500	28901192.000
49.000	28849700.000
49.500	28885468.000
50.000	28947332.000
50.500	28882418.000
51.000	28857990.000
51.500	28822850.000
52.000	28826482.000
52.500	28834596.000
53.000	28897262.000
53.500	28888810.000
54.000	28906298.000
54.500	28944388.000
55.000	28976892.000
55.500	28944702.000
56.000	28927758.000
56.500	28974122.000
57.000	29009312.000
57.500	28986852.000
58.000	29021212.000
58.500	28968690.000
59.000	28983780.000
59.500	28965634.000
60.000	28985542.000
60.500	29025764.000
61.000	28962844.000
61.500	28977638.000
62.000	29014896.000
62.500	29011802.000
63.000	28993020.000
63.500	28998750.000
64.000	29032816.000
64.500	29025174.000
65.000	29030616.000
65.500	29054172.000
66.000	29037390.000
66.500	29051804.000
67.000	29096640.000
67.500	29029436.000
68.000	29070976.000
68.500	29036506.000
69.000	29098874.000
69.500	29057120.000
70.000	29122820.000
70.500	29153640.000
71.000	29128744.000
71.500	29135564.000
72.000	29118392.000
72.500	29123274.000
73.000	29124164.000
73.500	29151276.000
74.000	29174744.000
74.500	29137504.000
75.000	29130380.000
75.500	29124164.000
76.000	29108340.000
76.500	29091928.000
77.000	29114708.000
77.500	29054318.000
78.000	29022828.000
78.500	29088538.000
79.000	29086614.000
79.500	29152752.000
80.000	29144454.000
80.500	29167428.000
81.000	29159418.000
81.500	29222014.000
82.000	29156478.000
82.500	29249634.000
83.000	29196418.000
83.500	29131132.000
84.000	29221424.000
84.500	29233222.000
85.000	29206396.000
85.500	29224278.000
86.000	29180224.000
86.500	29144748.000
87.000	29155878.000
87.500	29161952.000
88.000	29129046.000
88.500	29111870.000
89.000	29117204.000
89.500	29102290.000
90.000	29158992.000
90.500	29189864.000
91.000	29160760.000
91.500	29140154.000
92.000	29164896.000
92.500	29217412.000
93.000	29182600.000
93.500	29217714.000
94.000	29187496.000
94.500	29266960.000
95.000	29203270.000
95.500	29224394.000
96.000	29199254.000
96.500	29240798.000
97.000	29271602.000
97.500	29188694.000
98.000	29287570.000
98.500	29230970.000
99.000	29295088.000
99.500	29291918.000
100.000	29267374.000
100.500	29278002.000
101.000	29307218.000
101.500	29282342.000
102.000	29329260.000
102.500	29384778.000
103.000	29292210.000
103.500	29285504.000
104.000	29282044.000
104.500	29279378.000
105.000	29272776.000
105.500	29269346.000
106.000	29224088.000
106.500	29262026.000
107.000	29243950.000
107.500	29241864.000
108.000	29261260.000
108.500	29197298.000
109.000	29214862.000
109.500	29179462.000
110.000	29137326.000
110.500	29169490.000
111.000	29160002.000
111.500	29197592.000
112.000	29217394.000
112.500	29192388.000
113.000	29191630.000
113.500	29176328.000
114.000	29220652.000
114.500	29216344.000
115.000	29229182.000
115.500	29354810.000
116.000	29302572.000
116.500	29208944.000
117.000	29255454.000
117.500	29207580.000
118.000	29306032.000
118.500	29286678.000
119.000	29267850.000
119.500	29292400.000
120.000	29324024.000
120.500	29339360.000
121.000	29368198.000
121.500	29385670.000
122.000	29378414.000
122.500	29339972.000
123.000	29372262.000
123.500	29259776.000
124.000	29379306.000
124.500	29423058.000
125.000	29355710.000
125.500	29424452.000
126.000	29339766.000
126.500	29333020.000
127.000	29346092.000
127.500	29311564.000
128.000	29417172.000
128.500	29346080.000
129.000	29367008.000
129.500	29368196.000
130.000	29376928.000
130.500	29386846.000
131.000	29420456.000
131.500	29408220.000
132.000	29430616.000
132.500	29426628.000
133.000	29432708.000
133.500	29362448.000
134.000	29366814.000
134.500	29349068.000
135.000	29362142.000
135.500	29382184.000
136.000	29370268.000
136.500	29369476.000
137.000	29420958.000
137.500	29418668.000
138.000	29394196.000
138.500	29331336.000
139.000	29343222.000
139.500	29334498.000
140.000	29364818.000
140.500	29338974.000
141.000	29368288.000
141.500	29352630.000
142.000	29388340.000
142.500	29383464.000
143.000	29403242.000
143.500	29326976.000
144.000	29349650.000
144.500	29408216.000
145.000	29384566.000
145.500	29400554.000
146.000	29387236.000
146.500	29379700.000
147.000	29393606.000
147.500	29402352.000
148.000	29434794.000
148.500	29418154.000
149.000	29437982.000
149.500	29425132.000
150.000	29412594.000
150.500	29419856.000
151.000	29355496.000
151.500	29390420.000
152.000	29409310.000
152.500	29387158.000
153.000	29400872.000
153.500	29401158.000
154.000	29397084.000
154.500	29348660.000
155.000	29378116.000
155.500	29355402.000
156.000	29357184.000
156.500	29341426.000
157.000	29365518.000
157.500	29347166.000
158.000	29376340.000
158.500	29355592.000
159.000	29321148.000
159.500	29404930.000
160.000	29365314.000
160.500	29369972.000
161.000	29372552.000
161.500	29416884.000
162.000	29422446.000
162.500	29425330.000
163.000	29400476.000
163.500	29376604.000
164.000	29337074.000
164.500	29390630.000
165.000	29360360.000
165.500	29384268.000
166.000	29401158.000
166.500	29370968.000
167.000	29345294.000
167.500	29435382.000
168.000	29486904.000
168.500	29504794.000
169.000	29503606.000
169.500	29584822.000
170.000	29565402.000
170.500	29558654.000
171.000	29510702.000
171.500	29467604.000
172.000	29477806.000
172.500	29509204.000
173.000	29483916.000
173.500	29441768.000
174.000	29478916.000
174.500	29492418.000
175.000	29512638.000
175.500	29453356.000
176.000	29415982.000
176.500	29411400.000
177.000	29487416.000
177.500	29390614.000
178.000	29434398.000
178.500	29491808.000
179.000	29464222.000
179.500	29478912.000
180.000	29512028.000
180.500	29412220.000
181.000	29449870.000
181.500	29540604.000
182.000	29527964.000
182.500	29502110.000
183.000	29505628.000
183.500	29488004.000
184.000	29489720.000
184.500	29464234.000
185.000	29541200.000
185.500	29630394.000
186.000	29595434.000
186.500	29567962.000
187.000	29554404.000
187.500	29683750.000
188.000	29664166.000
188.500	29601360.000
189.000	29596034.000
189.500	29566448.000
190.000	29593040.000
190.500	29630330.000
191.000	29600766.000
191.500	29578292.000
192.000	29547412.000
192.500	29572450.000
193.000	29631582.000
193.500	29572146.000
194.000	29611426.000
194.500	29588366.000
195.000	29539406.000
195.500	29519960.000
196.000	29554384.000
196.500	29533798.000
197.000	29550572.000
197.500	29581532.000
198.000	29556196.000
198.500	29607530.000
199.000	29603402.000
199.500	29557382.000
200.000	29542622.000
200.500	29564126.000
201.000	29552368.000
201.500	29534480.000
202.000	29574248.000
202.500	29546812.000
203.000	29511214.000
203.500	29571248.000
204.000	29580406.000
204.500	29608742.000
205.000	29614676.000
205.500	29626490.000
206.000	29703706.000
206.500	29685256.000
207.000	29709920.000
207.500	29686750.000
208.000	29704918.000
208.500	29657562.000
209.000	29686998.000
209.500	29649326.000
210.000	29645466.000
210.500	29701598.000
211.000	29690308.000
211.500	29642524.000
212.000	29633034.000
212.500	29681392.000
213.000	29679888.000
213.500	29673388.000
214.000	29685862.000
214.500	29703088.000
215.000	29635382.000
215.500	29661468.000
216.000	29654058.000
216.500	29615566.000
217.000	29563596.000
217.500	29661208.000
218.000	29664428.000
218.500	29695070.000
219.000	29746306.000
219.500	29687608.000
220.000	29648124.000
220.500	29669846.000
221.000	29740370.000
221.500	29719168.000
222.000	29758532.000
222.500	29675188.000
223.000	29770214.000
223.500	29688196.000
224.000	29767858.000
224.500	29688872.000
225.000	29691822.000
225.500	29743342.000
226.000	29772036.000
226.500	29735890.000
227.000	29780714.000
227.500	29830160.000
228.000	29763084.000
228.500	29771728.000
229.000	29771162.000
229.500	29719214.000
230.000	29714146.000
230.500	29715900.000
231.000	29658516.000
231.500	29743032.000
232.000	29621206.000
232.500	29623544.000
233.000	29720366.000
233.500	29714690.000
234.000	29643364.000
234.500	29621746.000
235.000	29665920.000
235.500	29710830.000
236.000	29742126.000
236.500	29648708.000
237.000	29655808.000
237.500	29699536.000
238.000	29622342.000
238.500	29660866.000
239.000	29649306.000
239.500	29672778.000
240.000	29713548.000
240.500	29688810.000
241.000	29746012.000
241.500	29664174.000
242.000	29703394.000
242.500	29735290.000
243.000	29736750.000
243.500	29704298.000
244.000	29693564.000
244.500	29709968.000
245.000	29677842.000
245.500	29639272.000
246.000	29784876.000
246.500	29799276.000
247.000	29807994.000
247.500	29871368.000
248.000	29860516.000
248.500	29786994.000
249.000	29785232.000
249.500	29771764.000
250.000	29833178.000
250.500	29709158.000
251.000	29738340.000
251.500	29736532.000
252.000	29750224.000
252.500	29728440.000
253.000	29802586.000
253.500	29716846.000
254.000	29711466.000
254.500	29762496.000
255.000	29778928.000
255.500	29752632.000
256.000	29734732.000
256.500	29814818.000
257.000	29712084.000
257.500	29748752.000
258.000	29752642.000
258.500	29746682.000
259.000	29807080.000
259.500	29801684.000
260.000	29775646.000
260.500	29733824.000
261.000	29718296.000
261.500	29778626.000
262.000	29867428.000
262.500	29808868.000
263.000	29835588.000
263.500	29843358.000
264.000	30022330.000
264.500	29863862.000
265.000	29841272.000
265.500	29834082.000
266.000	29813366.000
266.500	29940722.000
267.000	29899344.000
267.500	29875260.000
268.000	29851180.000
268.500	29833146.000
269.000	29871926.000
269.500	29758326.000
270.000	29813362.000
270.500	29811246.000
271.000	29811838.000
271.500	29757982.000
272.000	29709064.000
272.500	29749916.000
273.000	29777410.000
273.500	29767248.000
274.000	29693262.000
274.500	29684628.000
275.000	29692360.000
275.500	29699778.000
276.000	29700676.000
276.500	29755858.000
277.000	29797458.000
277.500	29791136.000
278.000	29695070.000
278.500	29507308.000
279.000	29585646.000
279.500	29606314.000
280.000	29547328.000
280.500	29584150.000
281.000	29574386.000
281.500	29562614.000
282.000	29604814.000
282.500	29597142.000
283.000	29624386.000
283.500	29652798.000
284.000	29686390.000
284.500	29691166.000
285.000	29753704.000
285.500	29703042.000
286.000	29689952.000
286.500	29704534.000
287.000	29758222.000
287.500	29734064.000
288.000	29718892.000
288.500	29808514.000
289.000	29769316.000
289.500	29731058.000
290.000	29754656.000
290.500	29805492.000
291.000	29813596.000
291.500	29825594.000
292.000	29877628.000
292.500	29784544.000
293.000	29930102.000
293.500	29803120.000
294.000	29877610.000
294.500	29871618.000
295.000	29805204.000
295.500	29828644.000
296.000	29824712.000
296.500	29849666.000
297.000	29838222.000
297.500	29859264.000
298.000	29874320.000
298.500	29876420.000
299.000	29887264.000
299.500	29947668.000
