t (s)	R (ohm)
0.000	51190316.000
0.500	49125356.000
1.000	48394520.000
1.500	47581352.000
2.000	46986856.000
2.500	46473224.000
3.000	46088752.000
3.500	45587176.000
4.000	45139408.000
4.500	44722392.000
5.000	44520412.000
5.500	44055308.000
6.000	43917328.000
6.500	43715112.000
7.000	43361968.000
7.500	43030248.000
8.000	43011520.000
8.500	42807860.000
9.000	42665740.000
9.500	42495300.000
10.000	42283596.000
10.500	42018180.000
11.000	41945596.000
11.500	41879528.000
12.000	41838156.000
12.500	41645488.000
13.000	41449112.000
13.500	41406108.000
14.000	41259184.000
14.500	41059096.000
15.000	40907352.000
15.500	40948496.000
16.000	40821620.000
16.500	40803524.000
17.000	40595216.000
17.500	40639420.000
18.000	40528612.000
18.500	40441496.000
19.000	40436976.000
19.500	40356484.000
20.000	40199664.000
20.500	40135160.000
21.000	40115612.000
21.500	40101780.000
22.000	40157996.000
22.500	40076580.000
23.000	40008056.000
23.500	39957856.000
24.000	39770492.000
24.500	39801304.000
25.000	39771312.000
25.500	40011640.000
26.000	39679924.000
26.500	39702600.000
27.000	39708576.000
27.500	39695056.000
28.000	39632984.000
28.500	39546928.000
29.000	39553264.000
29.500	39480568.000
