t (s)	R (ohm)
0.000	44240160.000
0.500	44055816.000
1.000	44087532.000
1.500	44113512.000
2.000	44025024.000
2.500	44250060.000
3.000	44063372.000
3.500	43942168.000
4.000	43809272.000
4.500	43548836.000
5.000	43811012.000
5.500	43606560.000
6.000	43649112.000
6.500	43674916.000
7.000	43742664.000
7.500	43523608.000
8.000	43792500.000
8.500	43821180.000
9.000	43796472.000
9.500	43789368.000
10.000	43588636.000
10.500	43607892.000
11.000	43691608.000
11.500	43605656.000
12.000	43683704.000
12.500	43535412.000
13.000	43654388.000
13.500	43667488.000
14.000	43605660.000
14.500	43387964.000
15.000	43411884.000
15.500	43504012.000
16.000	43506176.000
16.500	43441412.000
17.000	43513120.000
17.500	43504016.000
18.000	43514440.000
18.500	43477464.000
19.000	43551508.000
19.500	43621504.000
20.000	43579028.000
20.500	43370672.000
21.000	43562452.000
21.500	43610552.000
22.000	43702248.000
22.500	43566848.000
23.000	43450544.000
23.500	43543672.000
24.000	43601348.000
24.500	43459652.000
25.000	43668796.000
25.500	43804012.000
26.000	43529212.000
26.500	43393264.000
27.000	43394584.000
27.500	43308512.000
28.000	43413648.000
28.500	43464336.000
29.000	43382412.000
29.500	40467200.000
30.000	43407216.000
30.500	43342112.000
31.000	43942632.000
31.500	44749004.000
32.000	45613412.000
32.500	46416956.000
33.000	47035056.000
33.500	47074888.000
34.000	47311180.000
34.500	47398148.000
35.000	48041372.000
35.500	47905956.000
36.000	47927736.000
36.500	48024824.000
37.000	48154608.000
37.500	48198648.000
38.000	48339204.000
38.500	48281184.000
39.000	48590920.000
39.500	48433096.000
40.000	48538260.000
40.500	48724888.000
41.000	48799188.000
41.500	48846916.000
42.000	49023628.000
42.500	48886668.000
43.000	49084052.000
43.500	49135376.000
44.000	49227368.000
44.500	49377556.000
45.000	49462588.000
45.500	49406768.000
46.000	49554492.000
46.500	49676612.000
47.000	49756740.000
47.500	49913092.000
48.000	50094404.000
48.500	50225312.000
49.000	50104068.000
49.500	50166144.000
50.000	50296980.000
50.500	50322096.000
51.000	50446496.000
51.500	50347236.000
52.000	50475884.000
52.500	50904160.000
53.000	50573668.000
53.500	50641596.000
54.000	50713456.000
54.500	50557640.000
55.000	50743088.000
55.500	50606880.000
56.000	50654072.000
56.500	50769708.000
57.000	50755656.000
57.500	50981948.000
58.000	50975760.000
58.500	51151016.000
59.000	51251492.000
59.500	51248104.000
60.000	51244968.000
60.500	51391132.000
61.000	51832556.000
61.500	52021104.000
62.000	52003756.000
62.500	52000560.000
63.000	52148400.000
63.500	52198840.000
64.000	52396444.000
64.500	52440332.000
65.000	52785944.000
65.500	52908344.000
66.000	53056484.000
66.500	52802696.000
67.000	52686792.000
67.500	53055916.000
68.000	52686272.000
68.500	53042176.000
69.000	52990332.000
69.500	53091472.000
70.000	53000024.000
70.500	53171832.000
71.000	53406768.000
71.500	53429692.000
72.000	53413076.000
72.500	53787044.000
73.000	53841920.000
73.500	53636132.000
74.000	53591892.000
74.500	53537048.000
75.000	53709052.000
75.500	54031192.000
76.000	54095404.000
76.500	54040012.000
77.000	53949780.000
77.500	54342856.000
78.000	54303040.000
78.500	54261056.000
79.000	54337344.000
79.500	54410512.000
80.000	54614516.000
80.500	54570340.000
81.000	54572040.000
81.500	54601656.000
82.000	54940268.000
82.500	55209980.000
83.000	55360244.000
83.500	55169352.000
84.000	55063348.000
84.500	55034920.000
85.000	55255796.000
85.500	55016824.000
86.000	55061632.000
86.500	55231600.000
87.000	55167100.000
87.500	55226568.000
88.000	55425256.000
88.500	55350360.000
89.000	55045752.000
89.500	55101576.000
90.000	55523804.000
90.500	55631588.000
91.000	55668064.000
91.500	55729748.000
92.000	55604788.000
92.500	55697796.000
93.000	55552780.000
93.500	56084648.000
94.000	56089188.000
94.500	56204396.000
95.000	56455724.000
95.500	56493720.000
96.000	56556724.000
96.500	56562552.000
97.000	56527252.000
97.500	56380936.000
98.000	56553908.000
98.500	56315988.000
99.000	56670972.000
99.500	56814184.000
100.000	56938072.000
100.500	56935188.000
101.000	56548580.000
101.500	56546816.000
102.000	56395824.000
102.500	56866692.000
103.000	56658696.000
103.500	56919340.000
104.000	57098004.000
104.500	56857852.000
105.000	57345600.000
105.500	57392104.000
106.000	57498744.000
106.500	57019148.000
107.000	57385324.000
107.500	57481404.000
108.000	57089100.000
108.500	57301496.000
109.000	57294532.000
109.500	57280796.000
110.000	57516072.000
110.500	57601136.000
111.000	57584912.000
111.500	57748548.000
112.000	57953664.000
112.500	57884568.000
113.000	58214016.000
113.500	57792940.000
114.000	58173776.000
114.500	57924404.000
115.000	58109516.000
115.500	58205772.000
116.000	58326688.000
116.500	58471920.000
117.000	58558616.000
117.500	58696628.000
118.000	58840684.000
118.500	58835340.000
119.000	58681584.000
119.500	58750844.000
120.000	58574820.000
120.500	58279804.000
121.000	58522800.000
121.500	58519156.000
122.000	58554480.000
122.500	58520328.000
123.000	58364112.000
123.500	58798500.000
124.000	58662984.000
124.500	58917696.000
125.000	58517412.000
125.500	58621028.000
126.000	58538340.000
126.500	58882568.000
127.000	58767740.000
127.500	58959404.000
128.000	58856456.000
128.500	58966628.000
129.000	59279176.000
129.500	59300580.000
130.000	59568212.000
130.500	59385472.000
131.000	59409996.000
131.500	59301172.000
132.000	59073640.000
132.500	59369444.000
133.000	59529936.000
133.500	59351636.000
134.000	59637760.000
134.500	59565804.000
135.000	59565176.000
135.500	59490424.000
136.000	59543016.000
136.500	59379472.000
137.000	59477356.000
137.500	59678060.000
138.000	59838936.000
138.500	59513216.000
139.000	59582548.000
139.500	59918132.000
140.000	60050600.000
140.500	60015888.000
141.000	60255668.000
141.500	59980568.000
142.000	60053596.000
142.500	60123032.000
143.000	60273492.000
143.500	60070624.000
144.000	60341616.000
144.500	60032348.000
145.000	60493772.000
145.500	60756760.000
146.000	60471588.000
146.500	60791092.000
147.000	60788580.000
147.500	60792944.000
148.000	60583532.000
148.500	60809168.000
149.000	60693944.000
149.500	60509192.000
150.000	60662228.000
150.500	60817224.000
151.000	60566160.000
151.500	60550664.000
152.000	60659760.000
152.500	60814124.000
153.000	60620680.000
153.500	60642420.000
154.000	60533296.000
154.500	60681508.000
155.000	60907252.000
155.500	60497468.000
156.000	60519076.000
156.500	60760452.000
157.000	60695184.000
157.500	60846620.000
158.000	60639884.000
158.500	60291256.000
159.000	60107784.000
159.500	60196964.000
160.000	60162160.000
160.500	60054812.000
161.000	60687056.000
161.500	60816612.000
162.000	60903576.000
162.500	60823572.000
163.000	60569240.000
163.500	60584704.000
164.000	60339804.000
164.500	60377920.000
165.000	60248356.000
165.500	60198764.000
166.000	60756184.000
166.500	60844128.000
167.000	60947324.000
167.500	60515388.000
168.000	61166344.000
168.500	61265672.000
169.000	61088192.000
169.500	60922964.000
170.000	61191572.000
170.500	61163888.000
171.000	61481980.000
171.500	61527800.000
172.000	61504276.000
172.500	61162680.000
173.000	61052960.000
173.500	60920500.000
174.000	60788628.000
174.500	61258136.000
175.000	61582184.000
175.500	61317688.000
176.000	60865444.000
176.500	61758016.000
177.000	61475328.000
177.500	61077380.000
178.000	61183476.000
178.500	61315848.000
179.000	61284580.000
179.500	61588516.000
180.000	61483204.000
180.500	61744368.000
181.000	61662324.000
181.500	61534740.000
182.000	62065460.000
182.500	61654780.000
183.000	61820476.000
183.500	61855432.000
184.000	62113948.000
184.500	62170736.000
185.000	62048492.000
185.500	62051028.000
186.000	61811028.000
186.500	61754336.000
187.000	61751788.000
187.500	61913584.000
188.000	61969292.000
188.500	61855396.000
189.000	62147984.000
189.500	62227576.000
190.000	62440216.000
190.500	62539696.000
191.000	62500072.000
191.500	62299124.000
192.000	62536436.000
192.500	61948656.000
193.000	61930524.000
193.500	62438252.000
194.000	62651728.000
194.500	62458656.000
195.000	62044040.000
195.500	62237072.000
196.000	61982492.000
196.500	61854196.000
197.000	61944876.000
197.500	62088076.000
198.000	62271888.000
198.500	61907336.000
199.000	62252880.000
199.500	62042796.000
200.000	61698332.000
200.500	61911036.000
201.000	61563100.000
201.500	61950528.000
202.000	61760572.000
202.500	61656628.000
203.000	62026460.000
203.500	61776144.000
204.000	62327664.000
204.500	62118344.000
205.000	61998832.000
205.500	62442724.000
206.000	62891760.000
206.500	62638264.000
207.000	63143936.000
207.500	62942084.000
208.000	62874988.000
208.500	62762080.000
209.000	62565188.000
209.500	62663140.000
210.000	62694020.000
210.500	62628520.000
211.000	62885108.000
211.500	62760168.000
212.000	62464340.000
212.500	62609940.000
213.000	62235140.000
213.500	62464996.000
214.000	62624084.000
214.500	62386036.000
215.000	62466244.000
215.500	62197812.000
216.000	62055364.000
216.500	62137256.000
217.000	61954960.000
217.500	62253496.000
218.000	62032764.000
218.500	62367644.000
219.000	61916668.000
219.500	61900404.000
220.000	62138504.000
220.500	61747492.000
221.000	62020152.000
221.500	62255420.000
222.000	61847944.000
222.500	62272428.000
223.000	62439976.000
223.500	62341568.000
224.000	62689380.000
224.500	62631052.000
225.000	62850228.000
225.500	62892752.000
226.000	62845844.000
226.500	62944600.000
227.000	62729232.000
227.500	62969800.000
228.000	62885772.000
228.500	62866432.000
229.000	62932212.000
229.500	62706148.000
230.000	63004200.000
230.500	63006768.000
231.000	63007432.000
231.500	62645792.000
232.000	62927768.000
232.500	63102928.000
233.000	62805160.000
233.500	62719648.000
234.000	62782032.000
234.500	63205208.000
235.000	63246328.000
235.500	63426560.000
236.000	63527288.000
236.500	63308420.000
237.000	63062032.000
237.500	63298168.000
238.000	62935096.000
238.500	63241200.000
239.000	63021200.000
239.500	63528560.000
240.000	63075168.000
240.500	63383904.000
241.000	63284324.000
241.500	62963460.000
242.000	62647084.000
242.500	62857512.000
243.000	62886468.000
243.500	63241832.000
244.000	62962828.000
244.500	63019236.000
245.000	62767832.000
245.500	63446976.000
246.000	63444976.000
246.500	63262128.000
247.000	63097820.000
247.500	63539956.000
248.000	63383292.000
248.500	63460904.000
249.000	63317168.000
249.500	63343900.000
250.000	63396508.000
250.500	63281100.000
251.000	63131828.000
251.500	63171596.000
252.000	63217144.000
252.500	63192432.000
253.000	63476192.000
253.500	63462836.000
254.000	63748356.000
254.500	63670680.000
255.000	63524744.000
255.500	63396552.000
256.000	63585432.000
256.500	63904900.000
257.000	63701312.000
257.500	63311432.000
258.000	63012208.000
258.500	63721968.000
259.000	63272208.000
259.500	63273476.000
260.000	63254464.000
260.500	63239952.000
261.000	63238012.000
261.500	63464120.000
262.000	63044448.000
262.500	63024976.000
263.000	63657864.000
263.500	63527264.000
264.000	63531120.000
264.500	63733560.000
265.000	63568828.000
265.500	63247016.000
266.000	63509428.000
266.500	63208456.000
267.000	63392936.000
267.500	63110628.000
268.000	63127588.000
268.500	63165444.000
269.000	63331920.000
269.500	63327436.000
270.000	63024944.000
270.500	63494804.000
271.000	63568128.000
271.500	63428492.000
272.000	63814644.000
272.500	63591248.000
273.000	63391024.000
273.500	63742544.000
274.000	63633480.000
274.500	63771496.000
275.000	63846796.000
275.500	63572012.000
276.000	63392260.000
276.500	63590528.000
277.000	63467956.000
277.500	63453372.000
278.000	63527316.000
278.500	62920124.000
279.000	63491008.000
279.500	63531800.000
280.000	63710372.000
280.500	63690524.000
281.000	63813296.000
281.500	63939224.000
282.000	63716892.000
282.500	63875896.000
283.000	63695712.000
283.500	64068884.000
284.000	63881756.000
284.500	63697688.000
285.000	63607252.000
285.500	63837216.000
286.000	63720128.000
286.500	63616920.000
287.000	64090296.000
287.500	64176176.000
288.000	64051276.000
288.500	64196416.000
289.000	64250596.000
289.500	63981264.000
290.000	64048724.000
290.500	63918560.000
291.000	64296332.000
291.500	64051412.000
292.000	64025380.000
292.500	63714324.000
293.000	63594460.000
293.500	64162528.000
294.000	64144916.000
294.500	63790156.000
295.000	63625748.000
295.500	63788868.000
296.000	63687920.000
296.500	63628972.000
297.000	63715692.000
297.500	64064304.000
298.000	64230976.000
298.500	63941188.000
299.000	63922436.000
299.500	64484608.000
